"2 theta, degree"	Intensity
7.0144	24868.9923
7.0314	24723.026
7.0484	24776.6393
7.0654	24816.3415
7.0824	24855.5135
7.0994	24656.6293
7.1164	24710.0578
7.1334	24861.1133
7.1504	24762.0445
7.1674	24784.2622
7.1844	24947.6734
7.2014	24851.9661
7.2184	24810.637
7.2354	24821.8582
7.2524	24976.1222
7.2694	24740.21
7.2864	24764.7795
7.3034	24869.7418
7.3204	24828.1381
7.3374	24814.8548
7.3544	24749.298
7.3714	24761.3698
7.3884	24689.6831
7.4054	24651.3591
7.4224	24734.0314
7.4394	24661.7994
7.4564	24721.7201
7.4734	24800.4226
7.4904	24636.296
7.5074	24732.8461
7.5244	24736.4268
7.5414	24589.0507
7.5584	24537.2507
7.5754	24591.3724
7.5924	24671.5719
7.6094	24637.3741
7.6264	24691.2373
7.6434	24758.0531
7.6604	24479.056
7.6774	24459.6006
7.6944	24508.1091
7.7114	24649.7156
7.7284	24476.8471
7.7454	24388.6759
7.7624	24573.1561
7.7794	24572.8411
7.7964	24444.4722
7.8134	24494.1695
7.8304	24468.8042
7.8474	24367.3808
7.8644	24503.9357
7.8814	24597.2732
7.8984	24490.5993
7.9154	24616.6263
7.9324	24284.8305
7.9494	24240.384
7.9664	24580.6792
7.9834	24218.231
8.0004	24354.656
8.0174	24421.0698
8.0344	24473.3495
8.0514	24332.6961
8.0684	24597.2992
8.0854	24584.807
8.1024	24295.6216
8.1194	24151.8619
8.1364	24054.3854
8.1534	24204.9119
8.1704	24404.2046
8.1874	24421.7729
8.2044	24466.3157
8.2214	24431.2367
8.2384	24139.2477
8.2554	24267.0073
8.2724	24407.1545
8.2894	24215.7342
8.3064	24188.7061
8.3234	24317.3134
8.3404	24110.3096
8.3574	24080.2793
8.3744	24290.1908
8.3914	24396.4462
8.4084	24212.5097
8.4254	24129.4141
8.4424	24300.0418
8.4594	24425.7358
8.4764	24339.1195
8.4934	24234.967
8.5104	24323.1356
8.5274	24284.3063
8.5444	24122.5631
8.5614	24219.4771
8.5784	24184.0304
8.5954	24279.243
8.6124	24168.526
8.6294	24041.9158
8.6464	24190.3124
8.6634	24466.2599
8.6804	24297.2034
8.6974	24127.0786
8.7144	24255.0709
8.7314	24123.2937
8.7484	24061.9838
8.7654	24299.5963
8.7824	24187.5448
8.7994	24112.3545
8.8164	24386.0707
8.8334	24028.6406
8.8504	23797.9561
8.8674	24019.6474
8.8844	23793.9039
8.9014	24020.9703
8.9184	23827.4908
8.9354	23921.1131
8.9524	24252.947
8.9694	23778.3649
8.9864	23904.3244
9.0034	23883.3857
9.0204	24134.4264
9.0374	24071.4683
9.0544	23989.7759
9.0714	24011.0247
9.0884	24133.1549
9.1054	23972.6507
9.1224	24102.7282
9.1394	24017.9371
9.1564	24112.4992
9.1734	24017.6526
9.1904	24178.7083
9.2074	23968.1113
9.2244	23744.2369
9.2414	23909.6468
9.2584	23863.674
9.2754	23773.402
9.2924	23979.7181
9.3094	24130.4412
9.3264	23996.3311
9.3434	23989.0436
9.3604	24061.422
9.3774	24136.644
9.3944	24109.2034
9.4114	24021.0499
9.4284	23920.4215
9.4454	23949.8486
9.4624	23997.3074
9.4794	23983.3502
9.4964	24143.8525
9.5134	24186.6074
9.5304	24259.8582
9.5474	24260.6374
9.5644	24433.7052
9.5814	24347.3687
9.5984	24514.9168
9.6154	24451.189
9.6324	24427.1485
9.6494	24083.4013
9.6664	24105.304
9.6834	24373.6203
9.7004	24229.0911
9.7174	24523.3712
9.7344	24752.7214
9.7514	25068.8782
9.7684	25434.26
9.7854	25463.9296
9.8024	25927.4197
9.8194	26152.5639
9.8364	26142.0741
9.8534	26341.3829
9.8704	26604.6469
9.8874	26908.5621
9.9044	28138.0168
9.9214	28873.1957
9.9384	30168.1431
9.9554	31181.7451
9.9724	33350.5669
9.9894	35881.9994
10.0064	37848.23
10.0234	38902.7519
10.0404	39403.2075
10.0574	38942.3957
10.0744	37525.4888
10.0914	35288.6751
10.1084	32407.5534
10.1254	29423.0145
10.1424	26824.7882
10.1594	25359.4962
10.1764	24618.4402
10.1934	24129.1612
10.2104	23734.8691
10.2274	23807.8758
10.2444	23770.0355
10.2614	23736.8317
10.2784	23695.2274
10.2954	23551.1696
10.3124	23344.3579
10.3294	23583.8162
10.3464	23757.8405
10.3634	23612.994
10.3804	23588.9687
10.3974	23654.4732
10.4144	23628.8052
10.4314	23802.026
10.4484	23639.2133
10.4654	23456.296
10.4824	23520.9888
10.4994	23432.2176
10.5164	23436.9511
10.5334	23676.346
10.5504	23724.1946
10.5674	23539.7525
10.5844	23561.0626
10.6014	23540.0915
10.6184	23458.9917
10.6354	23659.7003
10.6524	23578.8891
10.6694	23534.069
10.6864	23639.1944
10.7034	23861.273
10.7204	23656.1151
10.7374	23652.4017
10.7544	23908.5527
10.7714	23990.9988
10.7884	24003.9951
10.8054	24186.009
10.8224	24474.3216
10.8394	24627.8928
10.8564	24701.2147
10.8734	24909.6462
10.8904	25451.0416
10.9074	26515.0697
10.9244	27210.0543
10.9414	27719.8988
10.9584	28916.1783
10.9754	29573.9051
10.9924	30048.0565
11.0094	30850.8293
11.0264	31093.0233
11.0434	31000.9379
11.0604	30366.1543
11.0774	29694.0819
11.0944	30339.6809
11.1114	31706.1687
11.1284	34348.8739
11.1454	38536.4952
11.1624	40989.4659
11.1794	40271.7539
11.1964	35564.4727
11.2134	30109.5364
11.2304	26331.1144
11.2474	24335.4926
11.2644	23746.1176
11.2814	23542.3648
11.2984	23623.8239
11.3154	23708.4502
11.3324	23514.881
11.3494	23495.3622
11.3664	23673.8664
11.3834	23586.9108
11.4004	23509.0845
11.4174	23685.1428
11.4344	23627.6295
11.4514	23787.744
11.4684	23806.6222
11.4854	24122.1069
11.5024	24400.5932
11.5194	24555.1882
11.5364	24670.9425
11.5534	25094.2443
11.5704	25520.0647
11.5874	25672.6017
11.6044	26004.8211
11.6214	26309.923
11.6384	26785.5269
11.6554	28010.4379
11.6724	29931.9334
11.6894	32094.3086
11.7064	34551.5415
11.7234	36000.6266
11.7404	36224.6807
11.7574	37954.1664
11.7744	40485.208
11.7914	44008.8539
11.8084	46753.2627
11.8254	49548.9682
11.8424	54137.4434
11.8594	58676.7528
11.8764	61061.0825
11.8934	64292.8136
11.9104	69915.4541
11.9274	77631.9603
11.9444	85456.1749
11.9614	87214.3515
11.9784	72503.1647
11.9954	55367.6981
12.0124	41180.5981
12.0294	32488.7878
12.0464	27552.5286
12.0634	25417.2751
12.0804	24282.7548
12.0974	23829.6718
12.1144	23841.2489
12.1314	23661.7329
12.1484	23413.3702
12.1654	23287.0312
12.1824	23307.8066
12.1994	23144.4746
12.2164	23116.2684
12.2334	23146.358
12.2504	23079.6397
12.2674	23136.7645
12.2844	23160.1422
12.3014	23022.3893
12.3184	22964.5367
12.3354	22969.9259
12.3524	23098.3949
12.3694	23274.2568
12.3864	23168.5501
12.4034	23010.241
12.4204	23014.3435
12.4374	23070.0921
12.4544	23363.9861
12.4714	23400.29
12.4884	23480.2485
12.5054	23573.3644
12.5224	23513.7037
12.5394	23740.7852
12.5564	23761.2275
12.5734	23608.9155
12.5904	23902.3821
12.6074	24386.4715
12.6244	24593.5183
12.6414	24879.1174
12.6584	24937.9771
12.6754	25512.481
12.6924	25690.0941
12.7094	26159.8144
12.7264	26808.159
12.7434	27540.4855
12.7604	28467.0022
12.7774	29563.774
12.7944	30176.5809
12.8114	31259.568
12.8284	32120.7537
12.8454	33148.2844
12.8624	34457.0119
12.8794	34878.8164
12.8964	34775.5395
12.9134	33328.0019
12.9304	31068.5556
12.9474	28984.3034
12.9644	27248.631
12.9814	25828.4104
12.9984	24926.4802
13.0154	23837.893
13.0324	23765.7676
13.0494	23250.0481
13.0664	23093.0998
13.0834	22935.9284
13.1004	22995.7919
13.1174	22897.0315
13.1344	22819.4729
13.1514	22784.4366
13.1684	22906.4572
13.1854	22856.8891
13.2024	22811.3146
13.2194	22696.7346
13.2364	22572.6551
13.2534	22607.1018
13.2704	22631.3878
13.2874	22689.9823
13.3044	22700.6241
13.3214	22653.382
13.3384	22508.4137
13.3554	22523.1943
13.3724	22611.4285
13.3894	22399.7824
13.4064	22340.3422
13.4234	22493.8636
13.4404	22579.2304
13.4574	22593
13.4744	22467.9188
13.4914	22391.5938
13.5084	22647.3307
13.5254	22660.7503
13.5424	22714.2061
13.5594	22702.5542
13.5764	22548.5294
13.5934	22305.0968
13.6104	22739.1123
13.6274	22596.6625
13.6444	22604.7846
13.6614	22564.512
13.6784	22301.7119
13.6954	22350.266
13.7124	22525.9981
13.7294	22534.1413
13.7464	22432.3617
13.7634	22680.3111
13.7804	22385.0848
13.7974	22331.6867
13.8144	22303.4053
13.8314	22403.5441
13.8484	22636.3569
13.8654	22460.8719
13.8824	22387.3326
13.8994	22600.7788
13.9164	22303.9251
13.9334	22338.4953
13.9504	22338.5738
13.9674	22306.3304
13.9844	22575.6894
14.0014	22422.4337
14.0184	22422.7148
14.0354	22267.8139
14.0524	22494.811
14.0694	22364.1217
14.0864	22453.95
14.1034	22385.7401
14.1204	22246.2666
14.1374	22288.8432
14.1544	22571.9325
14.1714	22583.5699
14.1884	22567.5432
14.2054	22388.7835
14.2224	22200.8805
14.2394	22334.4689
14.2564	22559.1384
14.2734	22322.5239
14.2904	22345.1352
14.3074	22436.7224
14.3244	22391.5465
14.3414	22428.3644
14.3584	22501.8007
14.3754	22396.3638
14.3924	22570.4638
14.4094	22407.3492
14.4264	22063.3967
14.4434	22292.0866
14.4604	22428.4913
14.4774	22438.16
14.4944	22509.1458
14.5114	22493.5339
14.5284	22417.287
14.5454	22380.6088
14.5624	22337.6587
14.5794	22361.2743
14.5964	22598.6294
14.6134	22337.4971
14.6304	22402.6306
14.6474	22261.4537
14.6644	22552.3089
14.6814	22365.7522
14.6984	22470.6219
14.7154	22389.9441
14.7324	22553.9742
14.7494	22383.583
14.7664	22372.0909
14.7834	22453.3785
14.8004	22302.8865
14.8174	22505.314
14.8344	22201.263
14.8514	22548.517
14.8684	22422.2073
14.8854	22524.9617
14.9024	22505.3261
14.9194	22204.8295
14.9364	22436.666
14.9534	22608.3406
14.9704	22508.2371
14.9874	22251.9218
15.0044	22547.8574
15.0214	22347.0829
15.0384	22678.1086
15.0554	22380.5706
15.0724	22317.2055
15.0894	22405.1408
15.1064	22368.2634
15.1234	22285.1286
15.1404	22480.4366
15.1574	22421.8325
15.1744	22365.8983
15.1914	22466.4926
15.2084	22211.5743
15.2254	22254.1953
15.2424	22353.2486
15.2594	22268.8159
15.2764	22428.996
15.2934	22443.3376
15.3104	22407.4354
15.3274	22511.2953
15.3444	22288.1656
15.3614	22343.4818
15.3784	22466.5278
15.3954	22448.7542
15.4124	22497.5384
15.4294	22403.8454
15.4464	22296.8308
15.4634	22440.4288
15.4804	22399.8247
15.4974	22384.4456
15.5144	22270.3548
15.5314	22437.5539
15.5484	22708.3498
15.5654	22717.6476
15.5824	22653.4391
15.5994	22648.1675
15.6164	22476.7841
15.6334	22267.4985
15.6504	22522.3169
15.6674	22644.8157
15.6844	22761.4431
15.7014	22764.3827
15.7184	22934.5561
15.7354	23017.4461
15.7524	23076.4091
15.7694	22670.7096
15.7864	23001.7091
15.8034	23309.4161
15.8204	23310.0914
15.8374	23333.7603
15.8544	23300.6772
15.8714	23636.4741
15.8884	23896.1375
15.9054	23701.4411
15.9224	23957.6711
15.9394	24672.1166
15.9564	25302.2007
15.9734	26011.1183
15.9904	27188.5768
16.0074	27822.1644
16.0244	28959.5633
16.0414	30087.0811
16.0584	31323.8738
16.0754	33149.7388
16.0924	34772.4088
16.1094	36409.9511
16.1264	37922.8674
16.1434	39403.2428
16.1604	40473.1639
16.1774	42330.9881
16.1944	41695.7407
16.2114	38324.7202
16.2284	34790.6554
16.2454	31384.8611
16.2624	28941.0154
16.2794	27296.6611
16.2964	25933.5595
16.3134	25103.0447
16.3304	24423.1232
16.3474	23741.4366
16.3644	23361.5979
16.3814	23275.0826
16.3984	23402.8014
16.4154	23567.1794
16.4324	23666.8549
16.4494	23858.6335
16.4664	23763.8193
16.4834	23633.1537
16.5004	23703.2405
16.5174	23456.9469
16.5344	23386.5672
16.5514	23880.5533
16.5684	24162.5737
16.5854	24248.794
16.6024	23834.7299
16.6194	23904.145
16.6364	23465.1705
16.6534	22927.7214
16.6704	22776.5089
16.6874	22837.1874
16.7044	22655.5198
16.7214	22662.6499
16.7384	22894.547
16.7554	22578.8348
16.7724	22898.3334
16.7894	22693.0397
16.8064	22747.4309
16.8234	22849.1351
16.8404	22865.7225
16.8574	22851.9822
16.8744	22780.9511
16.8914	22726.0647
16.9084	22661.773
16.9254	22835.9728
16.9424	22785.0355
16.9594	22776.4012
16.9764	22867.5171
16.9934	23023.0003
17.0104	23148.1099
17.0274	23014.2282
17.0444	22711.6511
17.0614	22957.3917
17.0784	23383.9546
17.0954	23198.2937
17.1124	23223.2618
17.1294	23268.3548
17.1464	23262.7004
17.1634	23408.8627
17.1804	23407.4293
17.1974	23279.7457
17.2144	23468.9041
17.2314	23639.7551
17.2484	23884.4748
17.2654	24043.0535
17.2824	24397.4379
17.2994	25012.3064
17.3164	25357.7259
17.3334	25952.5504
17.3504	26506.1154
17.3674	27345.7559
17.3844	28391.8774
17.4014	29363.8156
17.4184	30303.9203
17.4354	31513.3216
17.4524	32910.6925
17.4694	34890.4504
17.4864	38490.3696
17.5034	43356.6096
17.5204	47047.6185
17.5374	49489.128
17.5544	50890.7261
17.5714	47704.4205
17.5884	43316.3743
17.6054	42657.4621
17.6224	47578.4824
17.6394	58287.0549
17.6564	70018.2605
17.6734	77736.9094
17.6904	79633.2479
17.7074	70760.4082
17.7244	57985.9486
17.7414	47793.3116
17.7584	34666.1768
17.7754	27292.4815
17.7924	25000.4363
17.8094	24060.7184
17.8264	23834.4423
17.8434	23774.1379
17.8604	23649.8259
17.8774	23357.1408
17.8944	23498.4273
17.9114	23400.0071
17.9284	23446.0374
17.9454	23227.1795
17.9624	23216.8056
17.9794	23331.1022
17.9964	23181.594
18.0134	23102.0883
18.0304	22957.7073
18.0474	22921.7829
18.0644	22960.1964
18.0814	22819.8552
18.0984	22979.0733
18.1154	23097.4414
18.1324	23074.4512
18.1494	22705.1617
18.1664	22690.1015
18.1834	22981.6203
18.2004	22934.1131
18.2174	22890.4819
18.2344	22795.8896
18.2514	22944.0841
18.2684	22930.7865
18.2854	22885.8882
18.3024	22972.0008
18.3194	22810.1713
18.3364	22946.7262
18.3534	22817.5572
18.3704	22769.2963
18.3874	22972.5791
18.4044	23058.411
18.4214	22974.9677
18.4384	22932.025
18.4554	22851.0093
18.4724	23093.9644
18.4894	23000.8255
18.5064	22939.2032
18.5234	22922.1001
18.5404	22945.6375
18.5574	22838.379
18.5744	22751.0221
18.5914	22870.6004
18.6084	22838.8763
18.6254	22956.7822
18.6424	22854.3585
18.6594	22866.2094
18.6764	22888.8242
18.6934	23159.9123
18.7104	23219.4018
18.7274	22657.1175
18.7444	22777.6116
18.7614	23065.5482
18.7784	23077.9693
18.7954	23078.6875
18.8124	22966.5553
18.8294	22803.9084
18.8464	23161.9891
18.8634	23316.8941
18.8804	22975.0845
18.8974	23484.4435
18.9144	23563.1339
18.9314	23820.3382
18.9484	23950.5894
18.9654	24205.4653
18.9824	24341.0292
18.9994	24353.8352
19.0164	24967.3902
19.0334	25390.2901
19.0504	25648.9769
19.0674	25257.2539
19.0844	24956.4625
19.1014	24554.338
19.1184	24088.2966
19.1354	23606.6411
19.1524	23360
19.1694	23216.8248
19.1864	23058.0689
19.2034	23081.1362
19.2204	22966.0189
19.2374	22922.1589
19.2544	22929.9324
19.2714	22955.0081
19.2884	22904.2192
19.3054	23038.9553
19.3224	23152.3449
19.3394	23170.6338
19.3564	23214.4177
19.3734	23288.949
19.3904	23335.2988
19.4074	23520.7077
19.4244	23668.7369
19.4414	23888.6047
19.4584	24242.8707
19.4754	24599.811
19.4924	25096.5741
19.5094	25824.0187
19.5264	25910.2058
19.5434	26288.3066
19.5604	26688.1658
19.5774	27375.2621
19.5944	28013.224
19.6114	29164.7999
19.6284	31109.5698
19.6454	32427.2163
19.6624	31803.8584
19.6794	31077.3191
19.6964	29929.3954
19.7134	27729.766
19.7304	26269.2329
19.7474	25595.8702
19.7644	24399.5875
19.7814	23640.047
19.7984	23497.7474
19.8154	23278.7096
19.8324	23345.7129
19.8494	23270.6665
19.8664	23237.0083
19.8834	23038.2196
19.9004	23583.3101
19.9174	23732.9939
19.9344	23612.8427
19.9514	23720.8977
19.9684	23848.0238
19.9854	24150.4474
20.0024	24480.3881
20.0194	24787.4218
20.0364	25215.4463
20.0534	25583.1162
20.0704	25885.5373
20.0874	26111.6566
20.1044	26328.9017
20.1214	26263.4113
20.1384	25524.0657
20.1554	25067.931
20.1724	24543.6643
20.1894	23985.2687
20.2064	23602.8657
20.2234	23360.9149
20.2404	23107.2939
20.2574	23023.7122
20.2744	23081.5408
20.2914	22843.8473
20.3084	22841.5513
20.3254	22908.6906
20.3424	22770.0388
20.3594	22799.2203
20.3764	22796.5305
20.3934	22890.2499
20.4104	23121.1536
20.4274	23027.2367
20.4444	22862.9347
20.4614	22781.4462
20.4784	22767.0585
20.4954	23208.5098
20.5124	22848.1087
20.5294	22931.6051
20.5464	22905.8232
20.5634	22961.7116
20.5804	22809.9552
20.5974	23044.7896
20.6144	23066.5917
20.6314	22859.1505
20.6484	22700.2695
20.6654	22880.316
20.6824	23045.0052
20.6994	22840.0277
20.7164	23035.3728
20.7334	23092.0901
20.7504	22689.3717
20.7674	22492.0076
20.7844	22732.3273
20.8014	22726.3391
20.8184	22974.7954
20.8354	22938.9239
20.8524	22594.0416
20.8694	22691.3636
20.8864	22821.3318
20.9034	22811.1677
20.9204	22922.1868
20.9374	22890.3424
20.9544	22627.6513
20.9714	22621.2497
20.9884	22603.5063
21.0054	22760.8578
21.0224	22959.2239
21.0394	22931.1984
21.0564	22878.1319
21.0734	22785.3992
21.0904	22843.9097
21.1074	22729.2387
21.1244	22890.1461
21.1414	22964.7196
21.1584	22861.1053
21.1754	22733.5379
21.1924	22761.1118
21.2094	22900.0259
21.2264	22842.2798
21.2434	22901.0097
21.2604	22859.8713
21.2774	22687.5484
21.2944	22573.9538
21.3114	22758.6346
21.3284	23002.9779
21.3454	22943.0331
21.3624	22905.2331
21.3794	22973.7696
21.3964	22855.7284
21.4134	22826.0848
21.4304	22721.6962
21.4474	22658.6328
21.4644	22900.9621
21.4814	22996.9681
21.4984	23045.8356
21.5154	23151.859
21.5324	22890.6261
21.5494	23181.8188
21.5664	23228.0649
21.5834	23210.6975
21.6004	23083.8706
21.6174	23248.8501
21.6344	23478.6337
21.6514	23402.2875
21.6684	23689.3988
21.6854	23464.1692
21.7024	23365.9368
21.7194	23485.9881
21.7364	23153.0378
21.7534	23185.2031
21.7704	23190.3892
21.7874	23043.0291
21.8044	23126.528
21.8214	23258.0707
21.8384	23056.4611
21.8554	23177.5821
21.8724	23041.0669
21.8894	23119.2253
21.9064	23432.2594
21.9234	23445.542
21.9404	23596.9827
21.9574	23622.8318
21.9744	24018.9123
21.9914	24321.9889
22.0084	24697.2059
22.0254	24557.5301
22.0424	24749.2249
22.0594	25074.3835
22.0764	25442.4173
22.0934	25877.641
22.1104	26755.7426
22.1274	27630.2407
22.1444	28469.638
22.1614	29723.3459
22.1784	31372.2078
22.1954	33685.9896
22.2124	35769.4775
22.2294	37091.646
22.2464	39258.9295
22.2634	42241.3421
22.2804	45761.3874
22.2974	49770.5357
22.3144	54075.9357
22.3314	58604.8371
22.3484	58296.9519
22.3654	50343.5125
22.3824	42791.6465
22.3994	39201.9274
22.4164	34173.5115
22.4334	28145.6904
22.4504	25369.4587
22.4674	24534.387
22.4844	23991.8347
22.5014	23777.6737
22.5184	23571.3187
22.5354	23354.2216
22.5524	23377.2881
22.5694	23581.5996
22.5864	23369.457
22.6034	23525.115
22.6204	23650.8577
22.6374	23180.6295
22.6544	23149.1443
22.6714	23346.9504
22.6884	23257.2209
22.7054	23132.7212
22.7224	23239.4088
22.7394	23058.1494
22.7564	22954.902
22.7734	22590.1808
22.7904	22919.2896
22.8074	22934.1194
22.8244	23028.3907
22.8414	22878.8387
22.8584	22881.6521
22.8754	22665.3546
22.8924	22774.8879
22.9094	22909.8407
22.9264	22995.2501
22.9434	22944.038
22.9604	23165.9034
22.9774	23134.2841
22.9944	22937.8238
23.0114	22786.3352
23.0284	22896.6562
23.0454	23036.422
23.0624	23031.6046
23.0794	23041.4324
23.0964	23053.4134
23.1134	23004.884
23.1304	22712.3872
23.1474	22824.78
23.1644	23054.9704
23.1814	23133.1813
23.1984	23019.925
23.2154	22959.9812
23.2324	22896.0722
23.2494	22830.1112
23.2664	22949.8691
23.2834	22940.3052
23.3004	22879.2742
23.3174	22917.9521
23.3344	22983.142
23.3514	22813.8757
23.3684	22961.0361
23.3854	23232.1621
23.4024	23322.6092
23.4194	23295.2817
23.4364	23113.8007
23.4534	23196.7671
23.4704	22757.3602
23.4874	22927.6803
23.5044	22754.6419
23.5214	22809.4846
23.5384	23034.3286
23.5554	22943.1173
23.5724	23199.2273
23.5894	23004.9693
23.6064	23186.8061
23.6234	23138.3181
23.6404	22938.1909
23.6574	23104.2681
23.6744	23237.2664
23.6914	23091.7956
23.7084	23393.9176
23.7254	23753.0994
23.7424	23968.5265
23.7594	23879.3674
23.7764	24189.0772
23.7934	24274.7974
23.8104	24328.0279
23.8274	24989.8896
23.8444	25334.1751
23.8614	25454.982
23.8784	26044.4383
23.8954	27036.9422
23.9124	28317.8351
23.9294	28547.3406
23.9464	28072.7775
23.9634	26915.2327
23.9804	26600.5841
23.9974	25784.412
24.0144	24590.4583
24.0314	23688.6309
24.0484	23477.3791
24.0654	23181.2326
24.0824	23169.2821
24.0994	23258.1945
24.1164	23274.222
24.1334	23294.5014
24.1504	23326.3684
24.1674	23362.4499
24.1844	23470.4201
24.2014	23440.0687
24.2184	23485.2509
24.2354	23447.3079
24.2524	23287.2143
24.2694	23538.248
24.2864	23637.4896
24.3034	23524.1594
24.3204	23490.2738
24.3374	23506.2485
24.3544	23579.8556
24.3714	23588.1899
24.3884	23660.9719
24.4054	23583.797
24.4224	23652.7743
24.4394	23665.8154
24.4564	23786.1523
24.4734	23815.0397
24.4904	23684.775
24.5074	23963.6252
24.5244	23983.752
24.5414	24179.3296
24.5584	23973.3436
24.5754	24271.2276
24.5924	23922.6447
24.6094	24365.4989
24.6264	24105.7806
24.6434	24391.8098
24.6604	24277.5728
24.6774	24864.1658
24.6944	24830.9511
24.7114	24953.8795
24.7284	24871.3201
24.7454	25790.2966
24.7624	25849.1556
24.7794	26573.628
24.7964	27460.1871
24.8134	29251.2786
24.8304	31199.6934
24.8474	33845.3239
24.8644	36111.5699
24.8814	38216.169
24.8984	42430.8042
24.9154	47795.5565
24.9324	54474.0758
24.9494	62737.7975
24.9664	72896.0564
24.9834	83066.0691
25.0004	93361.34
25.0174	106317.515
25.0344	124796.4602
25.0514	144084.7634
25.0684	150503.3437
25.0854	139405.8719
25.1024	122475.5694
25.1194	110982.7628
25.1364	97808.283
25.1534	80341.0221
25.1704	62913.1928
25.1874	48941.5575
25.2044	39653.4265
25.2214	34556.3077
25.2384	30746.2065
25.2554	27708.7077
25.2724	26026.0605
25.2894	25410.5411
25.3064	25126.3384
25.3234	24939.1549
25.3404	24744.9273
25.3574	24565.44
25.3744	24544.2451
25.3914	24670.5394
25.4084	24752.6574
25.4254	24591.1506
25.4424	24979.8038
25.4594	24793.9425
25.4764	25265.1748
25.4934	25253.8443
25.5104	25692.9634
25.5274	25927.6334
25.5444	26398.1414
25.5614	26878.9984
25.5784	27030.6518
25.5954	27529.3742
25.6124	27790.0724
25.6294	28030.0309
25.6464	29173.9664
25.6634	28957.8986
25.6804	28852.851
25.6974	29045.6927
25.7144	29109.5163
25.7314	29183.7784
25.7484	29479.7039
25.7654	29412.1427
25.7824	29513.0375
25.7994	29858.0931
25.8164	29934.3196
25.8334	30017.2702
25.8504	29686.61
25.8674	29128.7997
25.8844	28562.9466
25.9014	28020.5766
25.9184	27443.229
25.9354	26738.6776
25.9524	26070.8239
25.9694	25430.3186
25.9864	24768.2206
26.0034	24475.52
26.0204	24259.7005
26.0374	24221.9044
26.0544	24234.2955
26.0714	23987.2909
26.0884	23811.7884
26.1054	23788.7824
26.1224	23713.9062
26.1394	23791.5043
26.1564	23973.3786
26.1734	23840.4453
26.1904	23758.2286
26.2074	23757.5086
26.2244	23790.2443
26.2414	24153.2076
26.2584	24173.8464
26.2754	24264.1788
26.2924	24465.6323
26.3094	24774.0338
26.3264	25187.1208
26.3434	25617.2366
26.3604	26223.4662
26.3774	26800.2181
26.3944	26618.6075
26.4114	26625.6723
26.4284	26426.8204
26.4454	26757.1999
26.4624	26545.0598
26.4794	25628.9281
26.4964	25162.6072
26.5134	24800.6262
26.5304	24444.1583
26.5474	24068.6411
26.5644	23690.2139
26.5814	23817.0031
26.5984	23749.8805
26.6154	23475.2793
26.6324	23408.3031
26.6494	23342.363
26.6664	23744.3289
26.6834	23271.7791
26.7004	23491.739
26.7174	23353.0535
26.7344	23486.0219
26.7514	23166.2836
26.7684	23338.4668
26.7854	23193.4139
26.8024	23415.5554
26.8194	23395.2711
26.8364	23579.4469
26.8534	23584.7397
26.8704	23344.9839
26.8874	23598.1371
26.9044	23660.4129
26.9214	23520.936
26.9384	23464.9153
26.9554	23428.6997
26.9724	23362.6637
26.9894	23219.5255
27.0064	23196.3831
27.0234	23240.6507
27.0404	23120.5765
27.0574	23215.2281
27.0744	23227.4573
27.0914	23301.9854
27.1084	23329.5146
27.1254	23275.8807
27.1424	23227.7008
27.1594	23325.093
27.1764	23228.0535
27.1934	23237.4127
27.2104	23446.2511
27.2274	23479.4161
27.2444	23509.9219
27.2614	23301.2853
27.2784	23170.5454
27.2954	23238.332
27.3124	23427.71
27.3294	23384.2919
27.3464	23453.098
27.3634	23382.147
27.3804	23482.208
27.3974	23446.7082
27.4144	23524.5234
27.4314	23676.7455
27.4484	23806.5821
27.4654	23951.9137
27.4824	23836.7088
27.4994	23768.8018
27.5164	23834.6727
27.5334	24123.5698
27.5504	24239.8218
27.5674	24397.3125
27.5844	24798.2101
27.6014	24929.7017
27.6184	25204.2702
27.6354	25104.3691
27.6524	25556.2615
27.6694	25279.1499
27.6864	24961.3146
27.7034	24768.3914
27.7204	24991.7086
27.7374	24718.9927
27.7544	24660.2126
27.7714	24424.8644
27.7884	23973.0197
27.8054	23769.9767
27.8224	23869.4926
27.8394	23877.0192
27.8564	23716.7029
27.8734	23266.4999
27.8904	23683.392
27.9074	23666.7882
27.9244	23606.6675
27.9414	23632.4173
27.9584	23538.7784
27.9754	23700.3327
27.9924	23726.5114
28.0094	23420.0777
28.0264	23361.4842
28.0434	23432.6212
28.0604	23298.201
28.0774	23333.5073
28.0944	23554.4796
28.1114	23222.2104
28.1284	23237.3192
28.1454	23400.6532
28.1624	23382.6228
28.1794	23353.494
28.1964	23443.5686
28.2134	23510.1679
28.2304	23511.6012
28.2474	23388.2976
28.2644	23257.9579
28.2814	23468.6349
28.2984	23539.3503
28.3154	23509.6248
28.3324	23503.3608
28.3494	23432.3931
28.3664	23601.9557
28.3834	23560.517
28.4004	23464.6272
28.4174	23618.7096
28.4344	23532.2038
28.4514	23617.4439
28.4684	23605.7458
28.4854	23498.3333
28.5024	23726.8717
28.5194	23577.5344
28.5364	23600.6994
28.5534	23459.067
28.5704	23504.8072
28.5874	23815.5366
28.6044	23553.2055
28.6214	23535.0179
28.6384	23568.4292
28.6554	23595.763
28.6724	23611.7439
28.6894	23517.9765
28.7064	23846.5549
28.7234	23840.7171
28.7404	23908.7829
28.7574	23814.9786
28.7744	24051.5119
28.7914	24202.5153
28.8084	24275.2423
28.8254	24772.6413
28.8424	25142.551
28.8594	25560.6456
28.8764	25830.9117
28.8934	26170.4371
28.9104	27205.664
28.9274	28320.1596
28.9444	29232.7043
28.9614	29365.4852
28.9784	29434.9655
28.9954	30117.2643
29.0124	30638.7095
29.0294	29515.1688
29.0464	27994.1629
29.0634	27578.2138
29.0804	27152.0704
29.0974	26144.9131
29.1144	25235.262
29.1314	24559.9156
29.1484	24373.1205
29.1654	24418.3519
29.1824	24096.2893
29.1994	23795.0172
29.2164	23945.4977
29.2334	23856.9232
29.2504	23601.8005
29.2674	23802.9298
29.2844	23838.0809
29.3014	23710.82
29.3184	23606.2998
29.3354	23636.391
29.3524	23801.3791
29.3694	23760.6986
29.3864	23864.7153
29.4034	23681.6441
29.4204	23829.9097
29.4374	23601.4661
29.4544	23625.1414
29.4714	23709.8626
29.4884	24021.8843
29.5054	23985.8532
29.5224	23864.5369
29.5394	23782.2659
29.5564	23729.5555
29.5734	24287.3767
29.5904	24070.9734
29.6074	23942.9394
29.6244	23857.092
29.6414	23763.7948
29.6584	24061.3124
29.6754	24097.0642
29.6924	23997.5291
29.7094	23808.6794
29.7264	24048.5881
29.7434	24151.096
29.7604	23912.9682
29.7774	23948.2583
29.7944	24023.4025
29.8114	23930.3222
29.8284	23918.1339
29.8454	24104.5843
29.8624	23893.5989
29.8794	23919.0157
29.8964	23896.8062
29.9134	23766.8477
29.9304	23808.4944
29.9474	23840.3839
29.9644	23901.7605
29.9814	23781.6246
29.9984	24003.1565
30.0154	23954.6923
30.0324	23934.4954
30.0494	24088.2413
30.0664	24177.3444
30.0834	24217.5542
30.1004	24518.4521
30.1174	24628.7276
30.1344	24746.8735
30.1514	25101.2222
30.1684	25520.4113
30.1854	25747.8249
30.2024	25844.1355
30.2194	26218.9992
30.2364	26685.9574
30.2534	27221.2739
30.2704	28003.5088
30.2874	28841.537
30.3044	30007.9995
30.3214	30134.3981
30.3384	29389.2977
30.3554	28696.2625
30.3724	28335.7691
30.3894	27869.2987
30.4064	26934.3488
30.4234	25951.1343
30.4404	25518.7032
30.4574	25135.3986
30.4744	24496.5493
30.4914	24414.4034
30.5084	23988.7737
30.5254	23923.856
30.5424	23908.6861
30.5594	23986.4298
30.5764	24191.037
30.5934	24026.952
30.6104	24013.1761
30.6274	24156.1507
30.6444	23855.9738
30.6614	23937.6839
30.6784	23873.5248
30.6954	23814.2614
30.7124	24016.0187
30.7294	23875.3531
30.7464	24197.8323
30.7634	24255.8355
30.7804	24125.2849
30.7974	23995.0675
30.8144	23755.4998
30.8314	24187.1058
30.8484	24142.3953
30.8654	24065.9817
30.8824	24128.7781
30.8994	24283.9561
30.9164	24419.4745
30.9334	24481.1805
30.9504	24753.7337
30.9674	25445.4397
30.9844	25954.8706
31.0014	26156.5825
31.0184	26082.5248
31.0354	26276.7592
31.0524	26625.6534
31.0694	26704.7484
31.0864	26909.9146
31.1034	26973.3213
31.1204	27108.6817
31.1374	27066.9451
31.1544	26817.6142
31.1714	26581.0041
31.1884	26515.8561
31.2054	25993.9114
31.2224	25561.1172
31.2394	25500.725
31.2564	25307.8609
31.2734	25278.0658
31.2904	25221.0776
31.3074	24835.142
31.3244	24798.7118
31.3414	24644.0553
31.3584	24760.7911
31.3754	24486.1765
31.3924	24686.7608
31.4094	24597.0522
31.4264	24567.6989
31.4434	24299.3213
31.4604	24425.9568
31.4774	24415.5546
31.4944	24173.1801
31.5114	24323.2543
31.5284	24274.002
31.5454	24282.6445
31.5624	24026.2113
31.5794	24258.7586
31.5964	24207.4243
31.6134	24108.3713
31.6304	24448.3509
31.6474	24285.1126
31.6644	24217.9531
31.6814	23955.8032
31.6984	24320.9937
31.7154	24231.9442
31.7324	24441.8351
31.7494	24261.6385
31.7664	24519.5001
31.7834	24349.2064
31.8004	24448.7655
31.8174	24366.2351
31.8344	24502.1046
31.8514	24463.9428
31.8684	24743.34
31.8854	24925.7045
31.9024	25111.6339
31.9194	25244.7559
31.9364	25176.5416
31.9534	25241.317
31.9704	25579.616
31.9874	26151.2083
32.0044	26802.3221
32.0214	27788.8289
32.0384	29252.4186
32.0554	31029.9647
32.0724	32647.3284
32.0894	33762.1272
32.1064	34670.3179
32.1234	36142.4239
32.1404	38094.6159
32.1574	39835.4918
32.1744	41430.6048
32.1914	44247.269
32.2084	49147.6085
32.2254	55870.7834
32.2424	62875.5149
32.2594	62430.4905
32.2764	57062.9312
32.2934	50580.1192
32.3104	45880.6331
32.3274	44770.8727
32.3444	42325.713
32.3614	38103.7457
32.3784	33082.559
32.3954	29125.3271
32.4124	26842.9314
32.4294	26169.4623
32.4464	25558.1968
32.4634	25113.9112
32.4804	25074
32.4974	25300.9762
32.5144	25068.6043
32.5314	24586.3229
32.5484	24925.3513
32.5654	24497.499
32.5824	24570.6251
32.5994	24669.9703
32.6164	24535.9444
32.6334	24620.7104
32.6504	24690.7473
32.6674	24679.7354
32.6844	24523.914
32.7014	24452.9945
32.7184	24424.054
32.7354	24576.2294
32.7524	24597.7872
32.7694	24231.7388
32.7864	24403.9042
32.8034	24235.475
32.8204	24601.9281
32.8374	24582.5034
32.8544	24494.0529
32.8714	24433.4627
32.8884	24473.108
32.9054	24511.6421
32.9224	24335.6298
32.9394	24365.9017
32.9564	24489.2067
32.9734	24664.2525
32.9904	24577.5891
33.0074	24420.0071
33.0244	24424.2661
33.0414	24599.7792
33.0584	24427.059
33.0754	24333.1079
33.0924	24224.9615
33.1094	24166.9847
33.1264	24437.9359
33.1434	24392.7427
33.1604	24501.1337
33.1774	24357.2463
33.1944	24432.1794
33.2114	24852.0115
33.2284	24773.3601
33.2454	24469.3338
33.2624	24682.7573
33.2794	24823.248
33.2964	24464.2664
33.3134	24402.6123
33.3304	24589.6722
33.3474	24615.1532
33.3644	25106.3606
33.3814	24940.8394
33.3984	25156.7478
33.4154	25493.0129
33.4324	25648.7998
33.4494	25311.6796
33.4664	25716.9937
33.4834	25980.5449
33.5004	25897.3556
33.5174	26319.8641
33.5344	26565.0773
33.5514	27102.2695
33.5684	27023.3433
33.5854	27037.529
33.6024	27072.4631
33.6194	27123.6363
33.6364	27501.4045
33.6534	27891.1062
33.6704	27947.3902
33.6874	27875.2927
33.7044	27438.8843
33.7214	27323.2265
33.7384	26872.5003
33.7554	26661.0067
33.7724	26187.2541
33.7894	25923.2904
33.8064	25806.8296
33.8234	25797.7699
33.8404	25451.2815
33.8574	25209.0837
33.8744	25087.1926
33.8914	25190.8223
33.9084	25178.9343
33.9254	25197.9909
33.9424	25182.9704
33.9594	25355.6656
33.9764	25437.4607
33.9934	25572.5028
34.0104	25645.2674
34.0274	25823.5411
34.0444	26011.5316
34.0614	26306.5306
34.0784	26882.4343
34.0954	27483.4414
34.1124	28391.6908
34.1294	29313.728
34.1464	29561.0906
34.1634	28937.7337
34.1804	28725.087
34.1974	28526.3965
34.2144	28952.0256
34.2314	29016.6342
34.2484	29499.8355
34.2654	30196.9402
34.2824	30277.7518
34.2994	29725.6139
34.3164	28372.5452
34.3334	27309.2146
34.3504	27196.3367
34.3674	27217.7077
34.3844	26821.9393
34.4014	26076.6697
34.4184	25516.83
34.4354	25297.5455
34.4524	25337.4155
34.4694	25439.0386
34.4864	25450.7564
34.5034	25526.2042
34.5204	25527.006
34.5374	25570.3597
34.5544	25521.8974
34.5714	25800.5239
34.5884	26000.5136
34.6054	26019.1435
34.6224	26020.1985
34.6394	26454.5454
34.6564	26667.1215
34.6734	27490.2345
34.6904	28939.4788
34.7074	28762.1327
34.7244	29190.4412
34.7414	29250.0961
34.7584	29462.7992
34.7754	29859.0072
34.7924	30168.9231
34.8094	30387.1806
34.8264	30900.325
34.8434	30723.9494
34.8604	29824.2019
34.8774	28769.471
34.8944	28267.2789
34.9114	28294.0757
34.9284	27804.4397
34.9454	27248.7491
34.9624	26873.9472
34.9794	26283.1446
34.9964	26182.1272
35.0134	26577.0612
35.0304	26710.9336
35.0474	26766.5347
35.0644	26849.1676
35.0814	27258.2654
35.0984	27736.0695
35.1154	28220.6511
35.1324	28525.8416
35.1494	28801.6954
35.1664	29045.5374
35.1834	29540.7265
35.2004	29658.3513
35.2174	30157.3119
35.2344	30636.2674
35.2514	30735.2107
35.2684	30133.4176
35.2854	29153.9799
35.3024	28909.3804
35.3194	28706.9171
35.3364	28448.24
35.3534	27815.4493
35.3704	27230.4742
35.3874	26771.3254
35.4044	26371.6444
35.4214	26036.1768
35.4384	26304.55
35.4554	25931.4257
35.4724	25929.153
35.4894	25413.2042
35.5064	25878.1155
35.5234	26276.853
35.5404	26127.49
35.5574	26432.4059
35.5744	26522.4764
35.5914	26487.6739
35.6084	25726.3408
35.6254	25891.6218
35.6424	25657.7415
35.6594	25498.0649
35.6764	25530.9342
35.6934	25213.8944
35.7104	25055.7966
35.7274	25009.5427
35.7444	24862.0869
35.7614	24905.5313
35.7784	24832.8826
35.7954	24591.3574
35.8124	24531.942
35.8294	24676.7318
35.8464	24791.3176
35.8634	24679.6933
35.8804	24659.2104
35.8974	24701.3443
35.9144	24939.0557
35.9314	25159.2599
35.9484	25226.4106
35.9654	25396.4137
35.9824	25456.2674
35.9994	25716.4963
36.0164	26281.0422
36.0334	26867.2663
36.0504	27471.8834
36.0674	27939.4377
36.0844	28239.2809
36.1014	28489.8215
36.1184	29292.5099
36.1354	30745.9633
36.1524	32634.0358
36.1694	33574.867
36.1864	33772.2135
36.2034	32890.2279
36.2204	32002.241
36.2374	32343.7716
36.2544	32831.7278
36.2714	32244.9548
36.2884	30835.0328
36.3054	29521.0298
36.3224	28690.7239
36.3394	28870.0433
36.3564	28714.5951
36.3734	28359.816
36.3904	27841.8127
36.4074	27549.8512
36.4244	27770.4109
36.4414	27958.3925
36.4584	27859.1127
36.4754	28331.7087
36.4924	28357.9687
36.5094	28250.0858
36.5264	28139.8101
36.5434	28467.2032
36.5604	28052.9327
36.5774	28070.1778
36.5944	28244.0893
36.6114	28079.5175
36.6284	28276.1263
36.6454	27705.3025
36.6624	27333.1123
36.6794	27081.6958
36.6964	26936.5706
36.7134	26501.279
36.7304	26168.0116
36.7474	26299.5874
36.7644	26013.4705
36.7814	25748.8251
36.7984	25810.2257
36.8154	25576.2606
36.8324	25269.0372
36.8494	25232.4221
36.8664	25449.4843
36.8834	25498.6875
36.9004	25316.982
36.9174	25378.3966
36.9344	25561.1335
36.9514	25868.8726
36.9684	26390.0515
36.9854	27154.7873
37.0024	28232.4675
37.0194	29776.11
37.0364	31853.3993
37.0534	34244.4524
37.0704	36656.2743
37.0874	38818.9157
37.1044	40145.0535
37.1214	41495.8032
37.1384	45672.6641
37.1554	49759.6777
37.1724	53226.9518
37.1894	55983.9183
37.2064	58327.4141
37.2234	62745.9728
37.2404	72029.9056
37.2574	81539.8941
37.2744	81209.1331
37.2914	66307.1712
37.3084	51514.2185
37.3254	46383.3641
37.3424	48891.8329
37.3594	51096.585
37.3764	45264.8373
37.3934	37077.6322
37.4104	31144.5161
37.4274	29085.9196
37.4444	28950.5775
37.4614	29214.4058
37.4784	29451.0189
37.4954	29527.0341
37.5124	29759.9982
37.5294	29971.3997
37.5464	30287.8613
37.5634	30315.0278
37.5804	30508.8621
37.5974	29387.5845
37.6144	28233.9332
37.6314	28048.9466
37.6484	28254.8712
37.6654	28565.741
37.6824	28446.5916
37.6994	27458.9002
37.7164	26852.267
37.7334	26432.3377
37.7504	26688.4964
37.7674	26954.7292
37.7844	27078.3045
37.8014	26835.5829
37.8184	26543.7997
37.8354	26593.6353
37.8524	26767.5577
37.8694	26598.5883
37.8864	26894.0356
37.9034	26986.0936
37.9204	26715.8952
37.9374	26686.2036
37.9544	26870.604
37.9714	26855.5037
37.9884	26779.5342
38.0054	26991.1736
38.0224	27255.4752
38.0394	27170.394
38.0564	26259.1458
38.0734	25491.1687
38.0904	25213.0158
38.1074	25232.1743
38.1244	25391.3739
38.1414	25152.7489
38.1584	24754.1943
38.1754	24256.6233
38.1924	24403.8873
38.2094	24437.248
38.2264	24386.1857
38.2434	24257.6702
38.2604	24097.3848
38.2774	23992.7044
38.2944	24784.0186
38.3114	24693.3998
38.3284	24867.3565
38.3454	25183.1732
38.3624	25707.1958
38.3794	26081.6756
38.3964	26507.6328
38.4134	27106.3187
38.4304	28061.2252
38.4474	29308.5818
38.4644	30156.9575
38.4814	31869.6618
38.4984	34095.7656
38.5154	36750.1269
38.5324	39262.727
38.5494	42687.0958
38.5664	45536.2469
38.5834	44487.0603
38.6004	40891.3374
38.6174	39412.2655
38.6344	37813.0008
38.6514	37065.6824
38.6684	36559.3496
38.6854	34325.1098
38.7024	31945.6666
38.7194	30568.9359
38.7364	29280.9718
38.7534	28083.0453
38.7704	27200.6093
38.7874	27012.4018
38.8044	27456.7291
38.8214	27664.4307
38.8384	26723.8949
38.8554	26087.6566
38.8724	25818.9684
38.8894	25537.8873
38.9064	25382.3892
38.9234	25216.0012
38.9404	24852.2381
38.9574	24633.082
38.9744	24440.8884
38.9914	24191.1334
39.0084	24068.0387
39.0254	24018.2978
39.0424	23895.0127
39.0594	23960.1986
39.0764	24144.2884
39.0934	24178.9591
39.1104	24120.5815
39.1274	24166.6763
39.1444	24082.4168
39.1614	24078.3308
39.1784	23974.2359
39.1954	23919.8017
39.2124	23968.8554
39.2294	23754.9421
39.2464	23808.7731
39.2634	23546.6259
39.2804	23641.3479
39.2974	23798.7982
39.3144	23579.3176
39.3314	23390.0341
39.3484	23599.7041
39.3654	23843.5026
39.3824	23497.2759
39.3994	23444.3736
39.4164	23658.3202
39.4334	23321.4583
39.4504	23649.1559
39.4674	23464.3703
39.4844	23614.2831
39.5014	23574.8713
39.5184	23642.2035
39.5354	23861.8315
39.5524	23614.6971
39.5694	23460.177
39.5864	23797.4768
39.6034	23592.2316
39.6204	23814.6236
39.6374	23869.2878
39.6544	23803.4781
39.6714	24223.8281
39.6884	24032.8753
39.7054	23892.0719
39.7224	24082.0925
39.7394	24316.5896
39.7564	24453.2061
39.7734	24555.6975
39.7904	24526.9503
39.8074	24598.9712
39.8244	24797.0669
39.8414	24801.7353
39.8584	24646.9355
39.8754	24520.5247
39.8924	24411.5117
39.9094	24464.7114
39.9264	24408.5303
39.9434	24406.8082
39.9604	24292.6809
39.9774	24091.5739
39.9944	23873.0517
40.0114	23751.1267
40.0284	23596.1113
40.0454	23499.5408
40.0624	23481.2529
40.0794	23597.8729
40.0964	23663.322
40.1134	23509.3491
40.1304	23458.9539
40.1474	23540.9977
40.1644	23610.8871
40.1814	23448.8652
40.1984	23365.2949
40.2154	23450.2712
40.2324	23383.2885
40.2494	23355.1009
40.2664	23614.977
40.2834	23304.4442
40.3004	23465.902
40.3174	23384.8687
40.3344	23175.8759
40.3514	23192.7274
40.3684	23507.236
40.3854	23434.4359
40.4024	23300.7222
40.4194	23461.2223
40.4364	23285.8473
40.4534	23412.8792
40.4704	23380.5297
40.4874	23703.125
40.5044	23807.7077
40.5214	23755.2498
40.5384	24509.1331
40.5554	24895.259
40.5724	25519.6311
40.5894	26514.6707
40.6064	27416.8345
40.6234	28102.3305
40.6404	28460.4128
40.6574	29621.4512
40.6744	30725.4181
40.6914	31845.5016
40.7084	33441.1512
40.7254	35933.5668
40.7424	39448.6742
40.7594	43690.1329
40.7764	46674.7741
40.7934	47073.299
40.8104	44569.6862
40.8274	41296.2654
40.8444	38972.8586
40.8614	37255.465
40.8784	35884.0573
40.8954	34697.9608
40.9124	33075.2567
40.9294	30905.7072
40.9464	28643.8488
40.9634	26788.1219
40.9804	25274.1874
40.9974	24282.8336
41.0144	23870.8307
41.0314	23843.1787
41.0484	23448.2343
41.0654	23235.1671
41.0824	23174.7627
41.0994	23098.6194
41.1164	23033.8605
41.1334	23098.0792
41.1504	23009.7178
41.1674	23014.4674
41.1844	23271.7702
41.2014	22845.5528
41.2184	22861.0558
41.2354	23006.2388
41.2524	23248.1684
41.2694	23435.1861
41.2864	23285.0396
41.3034	23564.3782
41.3204	23833.7763
41.3374	24119.9282
41.3544	24323.3351
41.3714	24066.1286
41.3884	24734.9067
41.4054	25271.4986
41.4224	25623.1851
41.4394	26216.3373
41.4564	26288.1763
41.4734	27683.9755
41.4904	29256.3881
41.5074	32378.3251
41.5244	35467.0001
41.5414	36402.4498
41.5584	33504.5742
41.5754	30069.7227
41.5924	28077.1138
41.6094	27536.4013
41.6264	28956.8096
41.6434	29538.6704
41.6604	28848.3336
41.6774	26432.7029
41.6944	24810.6163
41.7114	24107.9933
41.7284	23637.3134
41.7454	23365.1182
41.7624	23431.3515
41.7794	23379.8245
41.7964	23310.1763
41.8134	23305.7267
41.8304	23382.5033
41.8474	23519.0991
41.8644	23822.1982
41.8814	23932.3559
41.8984	24085.2283
41.9154	24372.2833
41.9324	24484.4299
41.9494	24670.6891
41.9664	24735.9676
41.9834	24899.0643
42.0004	25167.0298
42.0174	25672.6909
42.0344	26748.2514
42.0514	28358.1395
42.0684	29326.5711
42.0854	28753.6172
42.1024	27558.2715
42.1194	27030.0778
42.1364	27045.0421
42.1534	27856.4244
42.1704	29113.0142
42.1874	30001.8366
42.2044	30856.1733
42.2214	31090.0161
42.2384	30431.0887
42.2554	28984.7329
42.2724	27906.0266
42.2894	27474.8987
42.3064	27654.7057
42.3234	27565.1494
42.3404	27629.4497
42.3574	27295.4942
42.3744	26581.052
42.3914	25639.0559
42.4084	25655.185
42.4254	25757.5203
42.4424	25533.9066
42.4594	25560.3249
42.4764	25672.5563
42.4934	25692.2839
42.5104	25681.4204
42.5274	26446.1565
42.5444	27676.0291
42.5614	29041.513
42.5784	28802.9185
42.5954	27570.793
42.6124	26344.8937
42.6294	25991.3001
42.6464	25506.492
42.6634	25544.1344
42.6804	25771.0579
42.6974	25404.0832
42.7144	24768.5025
42.7314	24266.6285
42.7484	23895.9864
42.7654	23369.5365
42.7824	23059.4233
42.7994	22827.7362
42.8164	22657.9342
42.8334	22753.6728
42.8504	22818.9808
42.8674	22830.2268
42.8844	22915.76
42.9014	22893.4713
42.9184	22756.2908
42.9354	22767.6164
42.9524	22843.6181
42.9694	22882.8273
42.9864	23304.8289
43.0034	23495.9877
43.0204	23458.5932
43.0374	23427.2475
43.0544	23416.0079
43.0714	24007.387
43.0884	24129.9038
43.1054	24340.2791
43.1224	25005.9527
43.1394	25691.3897
43.1564	26442.119
43.1734	27348.7225
43.1904	28129.8246
43.2074	29655.8081
43.2244	31057.8898
43.2414	32356.8681
43.2584	33424.0246
43.2754	34370.6852
43.2924	35132.8136
43.3094	36000.4112
43.3264	35829.9464
43.3434	35930.364
43.3604	36960.2792
43.3774	37175.1503
43.3944	36689.2923
43.4114	35700.0744
43.4284	35178.0716
43.4454	34311.1522
43.4624	33852.3876
43.4794	32720.1253
43.4964	32492.7635
43.5134	31831.1082
43.5304	31067.5545
43.5474	30260.5161
43.5644	29546.4664
43.5814	28766.8682
43.5984	28133.537
43.6154	27293.8549
43.6324	26905.6334
43.6494	26463.801
43.6664	26322.8756
43.6834	25861.1766
43.7004	25534.8535
43.7174	25060.7511
43.7344	24689.1919
43.7514	24340.0173
43.7684	24142.6456
43.7854	24037.4347
43.8024	23788.333
43.8194	23538.8797
43.8364	23370.5523
43.8534	23620.8092
43.8704	23591.4338
43.8874	23445.9272
43.9044	23764.6717
43.9214	23892.0911
43.9384	24177.8647
43.9554	24671.0379
43.9724	25069.3138
43.9894	25887.1752
44.0064	26919.8234
44.0234	27627.4638
44.0404	28330.1182
44.0574	28879.9687
44.0744	29427.5323
44.0914	30850.9395
44.1084	33313.2745
44.1254	36805.9728
44.1424	38219.7859
44.1594	38939.8554
44.1764	38657.2942
44.1934	37613.5873
44.2104	36971.0023
44.2274	37841.1618
44.2444	39617.2456
44.2614	41489.1283
44.2784	41967.4179
44.2954	39484.095
44.3124	35968.1701
44.3294	33824.7432
44.3464	33598.0346
44.3634	35071.5954
44.3804	36429.6325
44.3974	36444.1382
44.4144	33478.2466
44.4314	29920.1663
44.4484	28380.3235
44.4654	28262.2971
44.4824	29269.4054
44.4994	30223.0606
44.5164	28597.6443
44.5334	25955.8966
44.5504	24849.5117
44.5674	24003.1674
44.5844	23769.812
44.6014	24080.1146
44.6184	23895.8108
44.6354	23174.7237
44.6524	22523.6531
44.6694	21889.7519
44.6864	21837.6547
44.7034	22127.6228
44.7204	22132.6019
44.7374	21821.4979
44.7544	21579.9527
44.7714	21781.3887
44.7884	22006.756
44.8054	21945.4264
44.8224	21951.0859
44.8394	22085.6665
44.8564	22087.5187
44.8734	22300.3441
44.8904	22714.456
44.9074	23196.0681
44.9244	23859.5137
44.9414	24089.0589
44.9584	24602.5126
44.9754	25192.4566
44.9924	25757.3256
45.0094	26584.3564
45.0264	27280.1572
45.0434	27872.5731
45.0604	28458.5851
45.0774	28713.0798
45.0944	28811.1761
45.1114	28795.3463
45.1284	28055.8692
45.1454	27302.9503
45.1624	26511.5821
45.1794	26071.1951
45.1964	25259.5702
45.2134	25245.9292
45.2304	24796.6896
45.2474	24492.7317
45.2644	24232.9929
45.2814	23749.3771
45.2984	23425.8695
45.3154	22906.1413
45.3324	22788.7651
45.3494	22671.023
45.3664	22989.7481
45.3834	23290.4857
45.4004	24100.2286
45.4174	24769.3906
45.4344	24576.1371
45.4514	24698.3249
45.4684	25453.5524
45.4854	26107.4779
45.5024	26943.106
45.5194	28605.686
45.5364	30948.5275
45.5534	33218.7768
45.5704	35134.1416
45.5874	37660.7877
45.6044	38875.9094
45.6214	36947.3127
45.6384	34856.3883
45.6554	35617.699
45.6724	36998.6951
45.6894	37932.9504
45.7064	37430.1992
45.7234	35453.8646
45.7404	33886.6518
45.7574	32225.4071
45.7744	31275.8868
45.7914	30816.8723
45.8084	29936.8196
45.8254	29133.6684
45.8424	28379.072
45.8594	27473.8268
45.8764	26111.158
45.8934	24939.6829
45.9104	24265.1487
45.9274	23744.7808
45.9444	23463.0568
45.9614	23256.6728
45.9784	22836.6749
45.9954	22437.1255
46.0124	22072.3055
46.0294	21666.8737
46.0464	21496.6762
46.0634	21654.2873
46.0804	21438.7589
46.0974	21385.841
46.1144	21564.0092
46.1314	21324.1593
46.1484	21221.5852
46.1654	21297.0836
46.1824	21504.4412
46.1994	21332.5798
46.2164	21494.6923
46.2334	21555.1331
46.2504	21462.8708
46.2674	21732.9053
46.2844	21807.1541
46.3014	22148.5721
46.3184	22158.0307
46.3354	22940.1295
46.3524	23007.578
46.3694	23023.0426
46.3864	24045.4194
46.4034	24961.971
46.4204	27050.3882
46.4374	27958.5216
46.4544	26659.6853
46.4714	25173.1335
46.4884	25291.027
46.5054	25300.977
46.5224	24790.4394
46.5394	25050.4602
46.5564	24688.9377
46.5734	23961.0106
46.5904	23119.0902
46.6074	22759.5678
46.6244	22748.9976
46.6414	22766.7339
46.6584	21939.8569
46.6754	21372.7289
46.6924	21300.8696
46.7094	21134.3636
46.7264	20951.5119
46.7434	21030.5822
46.7604	20803.5916
46.7774	20703.3584
46.7944	20914.0596
46.8114	20892.3698
46.8284	20884.8227
46.8454	20797.2542
46.8624	20738.6249
46.8794	20727.8973
46.8964	20748.743
46.9134	20724.3886
46.9304	20753.4488
46.9474	20601.711
46.9644	20508.1588
46.9814	20579.2608
46.9984	20722.8471
47.0154	20512.9636
47.0324	20680.1146
47.0494	20926.234
47.0664	20758.9959
47.0834	20672.044
47.1004	20665.6618
47.1174	20644.2865
47.1344	20868.5346
47.1514	20551.1027
47.1684	20708.4911
47.1854	20685.0661
47.2024	20794.2135
47.2194	20731.6704
47.2364	20762.4576
47.2534	20668.7708
47.2704	20762.9304
47.2874	20844.5866
47.3044	20846.0133
47.3214	20604.2123
47.3384	20660.5331
47.3554	20827.5503
47.3724	20922.964
47.3894	20628.017
47.4064	20766.6609
47.4234	20874.5249
47.4404	20771.7598
47.4574	20615.0849
47.4744	20697.6686
47.4914	20698.2611
47.5084	20635.8397
47.5254	20722.5157
47.5424	20670.1446
47.5594	20698.2952
47.5764	20745.529
47.5934	20847.4344
47.6104	20713.5727
47.6274	20781.5356
47.6444	20837.5659
47.6614	20828.4252
47.6784	20920.9237
47.6954	20693.233
47.7124	20799.8515
47.7294	20859.6802
47.7464	20924.6425
47.7634	21102.3479
47.7804	21276.2979
47.7974	21455.4286
47.8144	21685.677
47.8314	21637.1858
47.8484	21503.0731
47.8654	21561.9589
47.8824	21688.2826
47.8994	21880.3363
47.9164	22077.7427
47.9334	22005.0519
47.9504	21755.385
47.9674	21516.641
47.9844	21488.737
48.0014	21297.9911
48.0184	21038.301
48.0354	21149.7683
48.0524	21280.9841
48.0694	20894.9056
48.0864	20833.0829
48.1034	20771.1223
48.1204	20853.0068
48.1374	20871
48.1544	20508.4908
48.1714	20740.9496
48.1884	20474.4219
48.2054	20551.3175
48.2224	20710.2355
48.2394	20650.8512
48.2564	20796.7755
48.2734	20364.858
48.2904	20772.2531
48.3074	20538.9163
48.3244	20694.2908
48.3414	20944.2316
48.3584	20658.6441
48.3754	20906.2303
48.3924	20827.1623
48.4094	20862.7308
48.4264	20837.152
48.4434	20997.7215
48.4604	21240.1723
48.4774	21214.7682
48.4944	21289.8933
48.5114	20963.9325
48.5284	20747.3877
48.5454	20731.7594
48.5624	20807.41
48.5794	20805.4269
48.5964	20861.3239
48.6134	20816.0053
48.6304	20828.3538
48.6474	20570.2177
48.6644	20610.158
48.6814	20831.4681
48.6984	20679.7755
48.7154	20452.7419
48.7324	20478.1181
48.7494	20687.5876
48.7664	20696.678
48.7834	20527.5253
48.8004	20403.9081
48.8174	20574.6469
48.8344	20764.6721
48.8514	20966.9279
48.8684	21176.4744
48.8854	21161.0904
48.9024	21031.701
48.9194	20979.3471
48.9364	20559.7296
48.9534	20589.4367
48.9704	20667.965
48.9874	20822.881
49.0044	20855.2726
49.0214	20849.4401
49.0384	20863.7376
49.0554	20882.3265
49.0724	20668.3752
49.0894	20744.1494
49.1064	20978.4484
49.1234	20655.4089
49.1404	20800.4416
49.1574	20884.9794
49.1744	20967.4177
49.1914	20686.6411
49.2084	21191.5789
49.2254	20963.7219
49.2424	21297.947
49.2594	21415.2602
49.2764	21664.7423
49.2934	21417.2483
49.3104	22169.9355
49.3274	22104.9844
49.3444	22457.9289
49.3614	23105.1138
49.3784	23476.7479
49.3954	24660.2637
49.4124	25968.5777
49.4294	26628.2855
49.4464	26574.7338
49.4634	26541.5889
49.4804	25877.7169
49.4974	24988.8318
49.5144	24310.519
49.5314	24428.2875
49.5484	24803.0947
49.5654	24989.1858
49.5824	24919.2532
49.5994	25160.3188
49.6164	25439.6864
49.6334	25597.8418
49.6504	25823.724
49.6674	26207.9499
49.6844	26913.4627
49.7014	27752.2272
49.7184	28804.0504
49.7354	30231.841
49.7524	31408.6567
49.7694	31271.9047
49.7864	29328.539
49.8034	26980.3163
49.8204	25911.6894
49.8374	25965.2579
49.8544	26504.694
49.8714	26689.6871
49.8884	26216.1759
49.9054	25253.3785
49.9224	23630.2577
49.9394	22341.7844
49.9564	21927.0584
49.9734	22054.1296
49.9904	21877.4758
50.0074	21560.0404
50.0244	21148.2412
50.0414	20986.5155
50.0584	21132.855
50.0754	21287.8114
50.0924	21104.1935
50.1094	21428.1912
50.1264	21467.5171
50.1434	21500.372
50.1604	21534.4598
50.1774	21499.9208
50.1944	21955.1906
50.2114	22153.0044
50.2284	22407.4124
50.2454	22431.6606
50.2624	23362.4739
50.2794	24499.3929
50.2964	24833.691
50.3134	25157.9023
50.3304	25566.9034
50.3474	26017.3866
50.3644	26441.3562
50.3814	27361.4474
50.3984	28777.0648
50.4154	31148.2435
50.4324	32800.899
50.4494	32821.421
50.4664	31267.12
50.4834	29122.3029
50.5004	28140.9165
50.5174	27547.9091
50.5344	27531.4371
50.5514	27829.3887
50.5684	27906.6887
50.5854	27564.7033
50.6024	26398.2774
50.6194	25253.0811
50.6364	24403.1588
50.6534	23802.3442
50.6704	23366.1446
50.6874	23062.6583
50.7044	22753.2254
50.7214	22688.6607
50.7384	22706.0947
50.7554	22872.0431
50.7724	23781.5912
50.7894	24785.9214
50.8064	25058.1275
50.8234	24905.8774
50.8404	24622.9316
50.8574	24157.7892
50.8744	23908.0982
50.8914	23799.6385
50.9084	24038.4157
50.9254	24580.7802
50.9424	25442.4049
50.9594	25741.8816
50.9764	25976.6069
50.9934	25843.3203
51.0104	25673.8697
51.0274	25400.7425
51.0444	25664.3931
51.0614	27163.091
51.0784	29415.9896
51.0954	30873.5106
51.1124	30783.3623
51.1294	29590.6801
51.1464	28311.6605
51.1634	26974.6335
51.1804	27151.2546
51.1974	27769.2818
51.2144	27426.5307
51.2314	27018.8782
51.2484	26051.6827
51.2654	25504.6832
51.2824	24676.8144
51.2994	24428.3317
51.3164	24179.783
51.3334	24586.2005
51.3504	24435.3802
51.3674	24354.918
51.3844	24292.817
51.4014	25038.0044
51.4184	26181.8371
51.4354	27949.014
51.4524	30455.088
51.4694	33461.8218
51.4864	35898.1365
51.5034	36908.3271
51.5204	35762.7062
51.5374	33183.9331
51.5544	32632.4866
51.5714	34434.85
51.5884	37285.1785
51.6054	40545.1634
51.6224	43107.9284
51.6394	44424.9155
51.6564	44126.7449
51.6734	42839.3899
51.6904	42369.8871
51.7074	42660.7497
51.7244	44263.2974
51.7414	46571.9334
51.7584	47983.5234
51.7754	47072.5194
51.7924	45186.9055
51.8094	42247.222
51.8264	38408.1108
51.8434	35908.0576
51.8604	34588.8052
51.8774	33782.6769
51.8944	32959.6053
51.9114	31369.2637
51.9284	29843.5712
51.9454	28090.1664
51.9624	26160.6926
51.9794	24525.1491
51.9964	23702.2043
52.0134	22771.8264
52.0304	21986.8543
52.0474	21668.8766
52.0644	21250.3958
52.0814	20688.5242
52.0984	20737.161
52.1154	20361.2852
52.1324	20532.8613
52.1494	20666.5696
52.1664	20457.9615
52.1834	20359.695
52.2004	20491.7012
52.2174	20128.5343
52.2344	20421.1691
52.2514	20391.7907
52.2684	20713.0574
52.2854	20593.4907
52.3024	20599.218
52.3194	20576.0223
52.3364	20857.6754
52.3534	20488.355
52.3704	20855.2944
52.3874	20701.098
52.4044	20726.8239
52.4214	20966.0239
52.4384	21129.0468
52.4554	21226.1311
52.4724	21391.37
52.4894	21439.1507
52.5064	21826.0735
